# From: Daniel Eisenstein <eisenste@cmb.as.arizona.edu>
# ../LRG/lrg.0701a.05.faruv
# Eisenstein, Hogg, and many others (2002)
# Average spectrum of SDSS LRGs at z~0.4-0.5
# lambda average_spectrum(flam)
2600.76001  0.188228
2601.36011  0.363361
2601.95996  0.278211
2602.55005  0.258052
2603.14990  0.348253
2603.75000  0.275979
2604.35010  0.247992
2604.94995  0.372696
2605.55005  0.108715
2606.14990  0.171629
2606.75000  0.388908
2607.35010  0.440688
2607.94995  0.350123
2608.55005  0.402093
2609.15991  0.104120
2609.76001  0.166823
2610.36011  0.108677
2610.95996  0.225035
2611.56006  0.195085
2612.15991  0.246869
2612.76001  0.308814
2613.36011  0.251328
2613.96997  0.254150
2614.57007  0.228079
2615.16992  0.225401
2615.77002  0.303515
2616.37012  0.326296
2616.97998  0.220789
2617.58008  0.229399
2618.17993  0.181222
2618.79004  0.170462
2619.38989  0.061770
2619.98999  0.332729
2620.59009  0.443730
2621.19995  0.314243
2621.80005  0.355893
2622.40991  0.441932
2623.01001  0.274061
2623.61011  0.187811
2624.21997  0.351095
2624.82007  0.249953
2625.42993  0.374355
2626.03003  0.235606
2626.63989  0.171526
2627.23999  0.327412
2627.85010  0.256752
2628.44995  0.259512
2629.06006  0.231743
2629.65991  0.170969
2630.27002  0.116463
2630.87012  0.342501
2631.47998  0.245384
2632.08008  0.181894
2632.68994  0.411858
2633.30005  0.392887
2633.89990  0.381847
2634.51001  0.273442
2635.12012  0.373230
2635.71997  0.413672
2636.33008  0.547072
2636.93994  0.442794
2637.55005  0.352778
2638.14990  0.290232
2638.76001  0.425476
2639.37012  0.446265
2639.97998  0.289849
2640.58008  0.320130
2641.18994  0.304284
2641.80005  0.317339
2642.40991  0.460736
2643.02002  0.380673
2643.62988  0.448198
2644.22998  0.422306
2644.84009  0.322950
2645.44995  0.480274
2646.06006  0.385959
2646.66992  0.397886
2647.28003  0.535256
2647.88989  0.296287
2648.50000  0.301435
2649.11011  0.396703
2649.71997  0.249725
2650.33008  0.342180
2650.93994  0.417642
2651.55005  0.552654
2652.15991  0.466449
2652.77002  0.381586
2653.37988  0.447025
2653.98999  0.393442
2654.60010  0.353878
2655.21997  0.403828
2655.83008  0.387871
2656.43994  0.377565
2657.05005  0.399466
2657.65991  0.357204
2658.27002  0.345670
2658.88989  0.411701
2659.50000  0.458249
2660.11011  0.380460
2660.71997  0.445925
2661.34009  0.241352
2661.94995  0.266515
2662.56006  0.376670
2663.17993  0.352382
2663.79004  0.397649
2664.39990  0.314083
2665.02002  0.357791
2665.62988  0.445315
2666.23999  0.413350
2666.86011  0.353697
2667.46997  0.280024
2668.09009  0.251802
2668.69995  0.372255
2669.32007  0.331049
2669.92993  0.311711
2670.54004  0.273931
2671.15991  0.274140
2671.78003  0.260484
2672.38989  0.409379
2673.01001  0.302510
2673.62012  0.314384
2674.23999  0.418738
2674.85010  0.330702
2675.46997  0.276942
2676.08008  0.420255
2676.69995  0.406813
2677.32007  0.297494
2677.92993  0.206665
2678.55005  0.276295
2679.16992  0.375472
2679.78003  0.363776
2680.39990  0.393176
2681.02002  0.418434
2681.63989  0.321145
2682.25000  0.354663
2682.87012  0.467064
2683.48999  0.446179
2684.11011  0.386988
2684.72998  0.468751
2685.34009  0.340737
2685.95996  0.361463
2686.58008  0.436155
2687.19995  0.343082
2687.82007  0.372358
2688.43994  0.437297
2689.06006  0.358342
2689.67993  0.313789
2690.29004  0.335954
2690.90991  0.181063
2691.53003  0.243005
2692.14990  0.347632
2692.77002  0.364403
2693.38989  0.328876
2694.01001  0.395132
2694.62988  0.272190
2695.26001  0.252887
2695.87988  0.339161
2696.50000  0.284055
2697.12012  0.263524
2697.73999  0.274776
2698.36011  0.198366
2698.97998  0.342936
2699.60010  0.322355
2700.21997  0.400671
2700.85010  0.353276
2701.46997  0.333304
2702.09009  0.372670
2702.70996  0.264984
2703.34009  0.339822
2703.95996  0.319003
2704.58008  0.426647
2705.19995  0.409875
2705.83008  0.321324
2706.44995  0.330272
2707.07007  0.249539
2707.69995  0.306508
2708.32007  0.354748
2708.93994  0.311401
2709.57007  0.296165
2710.18994  0.367528
2710.82007  0.360045
2711.43994  0.388475
2712.06006  0.280696
2712.68994  0.227559
2713.31006  0.265005
2713.93994  0.225324
2714.56006  0.334102
2715.18994  0.263175
2715.81006  0.332868
2716.43994  0.377080
2717.06006  0.368939
2717.68994  0.274604
2718.32007  0.234733
2718.93994  0.368511
2719.57007  0.368822
2720.18994  0.280876
2720.82007  0.226614
2721.44995  0.218301
2722.07007  0.313358
2722.69995  0.215936
2723.33008  0.250297
2723.94995  0.256527
2724.58008  0.218912
2725.20996  0.360030
2725.84009  0.397889
2726.45996  0.273807
2727.09009  0.321895
2727.71997  0.365806
2728.35010  0.357615
2728.97998  0.292877
2729.61011  0.323920
2730.22998  0.414188
2730.86011  0.280238
2731.48999  0.259149
2732.12012  0.266678
2732.75000  0.300937
2733.37988  0.320785
2734.01001  0.208543
2734.63989  0.186747
2735.27002  0.163157
2735.89990  0.253374
2736.53003  0.314493
2737.15991  0.193677
2737.79004  0.201910
2738.41992  0.238157
2739.05005  0.239467
2739.67993  0.205094
2740.31006  0.195988
2740.93994  0.177862
2741.57007  0.187081
2742.19995  0.172259
2742.84009  0.234910
2743.46997  0.259553
2744.10010  0.278406
2744.72998  0.283425
2745.36011  0.238332
2746.00000  0.204529
2746.62988  0.253199
2747.26001  0.121309
2747.88989  0.205741
2748.53003  0.257311
2749.15991  0.185296
2749.79004  0.139957
2750.42993  0.315036
2751.06006  0.216215
2751.68994  0.065400
2752.33008  0.274881
2752.95996  0.263519
2753.59009  0.300549
2754.22998  0.184974
2754.86011  0.213565
2755.50000  0.311258
2756.12988  0.162359
2756.77002  0.144593
2757.39990  0.213774
2758.04004  0.354134
2758.66992  0.263613
2759.31006  0.280910
2759.93994  0.180583
2760.58008  0.233659
2761.20996  0.281301
2761.85010  0.302732
2762.47998  0.351087
2763.12012  0.256789
2763.76001  0.235103
2764.38989  0.261011
2765.03003  0.301860
2765.66992  0.265155
2766.30005  0.299817
2766.93994  0.304131
2767.58008  0.135065
2768.21997  0.361308
2768.85010  0.310732
2769.48999  0.316012
2770.12988  0.312749
2770.77002  0.302857
2771.39990  0.256819
2772.04004  0.314450
2772.67993  0.373918
2773.32007  0.295109
2773.95996  0.322219
2774.60010  0.344635
2775.23999  0.320518
2775.87012  0.231849
2776.51001  0.268449
2777.14990  0.312766
2777.79004  0.222316
2778.42993  0.272893
2779.07007  0.273419
2779.70996  0.230375
2780.35010  0.308499
2780.98999  0.186154
2781.62988  0.163437
2782.27002  0.274870
2782.90991  0.268851
2783.56006  0.296312
2784.19995  0.242780
2784.84009  0.222729
2785.47998  0.299836
2786.12012  0.213420
2786.76001  0.218499
2787.39990  0.264284
2788.05005  0.223482
2788.68994  0.157659
2789.33008  0.231667
2789.96997  0.278746
2790.61011  0.236449
2791.26001  0.125828
2791.89990  0.057677
2792.54004  0.185660
2793.18994  0.197039
2793.83008  0.167104
2794.46997  0.145834
2795.12012  0.184719
2795.76001  0.134505
2796.39990  0.195633
2797.05005  0.231465
2797.68994  0.129485
2798.34009  0.149700
2798.97998  0.123874
2799.62988  0.142939
2800.27002  0.170124
2800.90991  0.065574
2801.56006  0.219451
2802.19995  0.165338
2802.85010  0.085820
2803.50000  0.172700
2804.13989  0.225625
2804.79004  0.235106
2805.42993  0.231670
2806.08008  0.114055
2806.72998  0.225359
2807.37012  0.189108
2808.02002  0.116067
2808.65991  0.225638
2809.31006  0.238368
2809.95996  0.247865
2810.61011  0.228203
2811.25000  0.246361
2811.89990  0.267998
2812.55005  0.214557
2813.19995  0.160557
2813.84009  0.191291
2814.48999  0.226643
2815.13989  0.280974
2815.79004  0.225428
2816.43994  0.332825
2817.08008  0.365897
2817.72998  0.321371
2818.37988  0.287354
2819.03003  0.311851
2819.67993  0.330234
2820.33008  0.328197
2820.97998  0.324902
2821.62988  0.310125
2822.28003  0.345358
2822.92993  0.311112
2823.58008  0.295509
2824.22998  0.339558
2824.87988  0.373193
2825.53003  0.272169
2826.17993  0.333506
2826.83008  0.381593
2827.47998  0.384330
2828.12988  0.338762
2828.78003  0.282454
2829.43994  0.351913
2830.09009  0.385465
2830.73999  0.360280
2831.38989  0.366253
2832.04004  0.507013
2832.69995  0.393273
2833.35010  0.265965
2834.00000  0.352745
2834.64990  0.399753
2835.31006  0.380829
2835.95996  0.320075
2836.61011  0.382360
2837.26001  0.415731
2837.91992  0.387947
2838.57007  0.405697
2839.22998  0.353275
2839.87988  0.275506
2840.53003  0.254024
2841.18994  0.404116
2841.84009  0.353283
2842.50000  0.352191
2843.14990  0.273135
2843.81006  0.334072
2844.45996  0.344670
2845.12012  0.247576
2845.77002  0.285974
2846.42993  0.420070
2847.08008  0.309290
2847.73999  0.276448
2848.38989  0.341297
2849.05005  0.287825
2849.69995  0.234904
2850.36011  0.258564
2851.02002  0.152417
2851.66992  0.172651
2852.33008  0.195771
2852.98999  0.249464
2853.63989  0.224007
2854.30005  0.196143
2854.95996  0.261200
2855.62012  0.165543
2856.27002  0.237000
2856.92993  0.224115
2857.59009  0.293147
2858.25000  0.354134
2858.90991  0.333696
2859.56006  0.364332
2860.21997  0.363766
2860.87988  0.378768
2861.54004  0.340487
2862.19995  0.342131
2862.86011  0.418975
2863.52002  0.395849
2864.17993  0.268507
2864.84009  0.373694
2865.50000  0.468984
2866.15991  0.356776
2866.82007  0.381556
2867.47998  0.323004
2868.13989  0.400606
2868.80005  0.435634
2869.45996  0.346379
2870.12012  0.350884
2870.78003  0.463097
2871.43994  0.450012
2872.10010  0.388180
2872.76001  0.403834
2873.42993  0.438933
2874.09009  0.508148
2874.75000  0.422959
2875.40991  0.324872
2876.07007  0.366227
2876.73999  0.420402
2877.39990  0.440314
2878.06006  0.438620
2878.71997  0.399693
2879.38989  0.418710
2880.05005  0.370768
2880.70996  0.306688
2881.37988  0.356808
2882.04004  0.424562
2882.69995  0.411420
2883.37012  0.340518
2884.03003  0.332396
2884.68994  0.401816
2885.36011  0.302048
2886.02002  0.338858
2886.68994  0.429641
2887.35010  0.386815
2888.02002  0.427490
2888.67993  0.450220
2889.35010  0.490528
2890.01001  0.479124
2890.67993  0.420309
2891.34009  0.505989
2892.01001  0.458541
2892.67993  0.414688
2893.34009  0.465041
2894.01001  0.463604
2894.67993  0.390526
2895.34009  0.448174
2896.01001  0.469129
2896.67993  0.538503
2897.34009  0.557319
2898.01001  0.452777
2898.67993  0.479926
2899.34009  0.509469
2900.01001  0.546628
2900.67993  0.500734
2901.35010  0.581515
2902.02002  0.599265
2902.67993  0.569304
2903.35010  0.628316
2904.02002  0.512110
2904.68994  0.564630
2905.36011  0.645680
2906.03003  0.591996
2906.69995  0.597748
2907.37012  0.625598
2908.04004  0.603772
2908.70996  0.509563
2909.37988  0.563644
2910.05005  0.525834
2910.71997  0.554670
2911.38989  0.630470
2912.06006  0.606063
2912.72998  0.548871
2913.39990  0.541792
2914.07007  0.590301
2914.73999  0.582320
2915.40991  0.547839
2916.08008  0.584225
2916.75000  0.595116
2917.42993  0.639794
2918.10010  0.494167
2918.77002  0.467970
2919.43994  0.581297
2920.11011  0.576692
2920.79004  0.501884
2921.45996  0.512743
2922.12988  0.600618
2922.81006  0.604137
2923.47998  0.508532
2924.14990  0.569435
2924.82007  0.586130
2925.50000  0.549105
2926.16992  0.556311
2926.85010  0.489418
2927.52002  0.477479
2928.18994  0.464997
2928.87012  0.527171
2929.54004  0.534242
2930.21997  0.547374
2930.88989  0.640588
2931.57007  0.509612
2932.23999  0.542444
2932.91992  0.651746
2933.59009  0.595815
2934.27002  0.573481
2934.93994  0.527092
2935.62012  0.592255
2936.30005  0.576213
2936.96997  0.552647
2937.64990  0.483140
2938.33008  0.490467
2939.00000  0.526996
2939.67993  0.503084
2940.36011  0.569571
2941.03003  0.563579
2941.70996  0.532878
2942.38989  0.609121
2943.07007  0.627831
2943.73999  0.551661
2944.41992  0.550339
2945.10010  0.489040
2945.78003  0.474023
2946.45996  0.560763
2947.12988  0.620232
2947.81006  0.532136
2948.48999  0.562197
2949.16992  0.473253
2949.85010  0.498673
2950.53003  0.473035
2951.20996  0.529816
2951.88989  0.560434
2952.57007  0.513089
2953.25000  0.525083
2953.92993  0.541190
2954.61011  0.561511
2955.29004  0.543407
2955.96997  0.603086
2956.64990  0.637101
2957.33008  0.583664
2958.01001  0.512228
2958.68994  0.539060
2959.37012  0.558272
2960.06006  0.536633
2960.73999  0.489577
2961.41992  0.505127
2962.10010  0.595247
2962.78003  0.661744
2963.46997  0.583495
2964.14990  0.543369
2964.83008  0.562559
2965.51001  0.511427
2966.19995  0.532698
2966.87988  0.552831
2967.56006  0.465236
2968.25000  0.451289
2968.92993  0.481081
2969.61011  0.490385
2970.30005  0.506994
2970.97998  0.442400
2971.66992  0.400107
2972.35010  0.521699
2973.03003  0.515862
2973.71997  0.493802
2974.39990  0.511752
2975.09009  0.459394
2975.77002  0.563115
2976.45996  0.633057
2977.13989  0.580638
2977.83008  0.593178
2978.52002  0.580433
2979.19995  0.530294
2979.88989  0.473760
2980.57007  0.534642
2981.26001  0.495551
2981.94995  0.514614
2982.62988  0.532914
2983.32007  0.415101
2984.01001  0.384410
2984.68994  0.420264
2985.37988  0.418335
2986.07007  0.532696
2986.76001  0.487989
2987.43994  0.466530
2988.12988  0.447783
2988.82007  0.424230
2989.51001  0.506898
2990.19995  0.525151
2990.88989  0.521320
2991.57007  0.493464
2992.26001  0.565343
2992.94995  0.582241
2993.63989  0.546385
2994.33008  0.639158
2995.02002  0.565344
2995.70996  0.480075
2996.39990  0.550130
2997.09009  0.580870
2997.78003  0.552074
2998.46997  0.531465
2999.15991  0.521397
2999.85010  0.396268
3000.54004  0.501270
3001.22998  0.523846
3001.92993  0.443620
3002.62012  0.448232
3003.31006  0.423199
3004.00000  0.456585
3004.68994  0.542439
3005.37988  0.512408
3006.08008  0.512641
3006.77002  0.533992
3007.45996  0.475405
3008.14990  0.493697
3008.85010  0.530718
3009.54004  0.526876
3010.22998  0.514962
3010.91992  0.486850
3011.62012  0.519974
3012.31006  0.538799
3013.01001  0.519827
3013.69995  0.529961
3014.38989  0.530492
3015.09009  0.568349
3015.78003  0.505837
3016.47998  0.491748
3017.16992  0.564515
3017.87012  0.542025
3018.56006  0.453909
3019.26001  0.476207
3019.94995  0.501174
3020.64990  0.409421
3021.34009  0.383437
3022.04004  0.506594
3022.72998  0.435870
3023.42993  0.477352
3024.12988  0.535075
3024.82007  0.506957
3025.52002  0.525676
3026.21997  0.611001
3026.90991  0.607370
3027.61011  0.549778
3028.31006  0.512503
3029.00000  0.636311
3029.69995  0.650604
3030.39990  0.611475
3031.10010  0.635233
3031.80005  0.652658
3032.48999  0.636927
3033.18994  0.591635
3033.88989  0.676629
3034.59009  0.682384
3035.29004  0.630742
3035.98999  0.627716
3036.68994  0.606128
3037.38989  0.597567
3038.08008  0.676579
3038.78003  0.602543
3039.47998  0.593514
3040.17993  0.597048
3040.87988  0.501141
3041.58008  0.535443
3042.28003  0.569915
3042.98999  0.553949
3043.68994  0.565628
3044.38989  0.587254
3045.09009  0.580292
3045.79004  0.557562
3046.48999  0.622487
3047.18994  0.634657
3047.88989  0.617348
3048.60010  0.640683
3049.30005  0.638344
3050.00000  0.603900
3050.69995  0.634011
3051.40991  0.695379
3052.11011  0.615344
3052.81006  0.596531
3053.51001  0.594595
3054.21997  0.641036
3054.91992  0.630443
3055.62012  0.599465
3056.33008  0.612559
3057.03003  0.620075
3057.73999  0.508429
3058.43994  0.557989
3059.13989  0.532197
3059.85010  0.566010
3060.55005  0.614064
3061.26001  0.523162
3061.95996  0.507583
3062.66992  0.504502
3063.37012  0.563026
3064.08008  0.560245
3064.78003  0.578219
3065.48999  0.533495
3066.19995  0.532677
3066.89990  0.541346
3067.61011  0.587541
3068.31006  0.574705
3069.02002  0.585788
3069.72998  0.536037
3070.42993  0.566632
3071.13989  0.552247
3071.85010  0.598192
3072.56006  0.648396
3073.26001  0.607351
3073.96997  0.575127
3074.67993  0.590277
3075.38989  0.589514
3076.10010  0.555726
3076.80005  0.583172
3077.51001  0.693631
3078.21997  0.635951
3078.92993  0.607630
3079.63989  0.669585
3080.35010  0.641869
3081.06006  0.654653
3081.77002  0.655191
3082.47998  0.626472
3083.18994  0.635838
3083.89990  0.618953
3084.61011  0.615918
3085.32007  0.633452
3086.03003  0.621211
3086.73999  0.629977
3087.44995  0.564320
3088.15991  0.567432
3088.87012  0.603279
3089.58008  0.603775
3090.29004  0.548332
3091.01001  0.506183
3091.71997  0.477428
3092.42993  0.544155
3093.13989  0.570176
3093.85010  0.516986
3094.57007  0.469144
3095.28003  0.495635
3095.98999  0.529902
3096.70996  0.480421
3097.41992  0.524602
3098.12988  0.540914
3098.85010  0.486275
3099.56006  0.512432
3100.27002  0.574263
3100.98999  0.586689
3101.69995  0.505002
3102.40991  0.531230
3103.12988  0.595072
3103.84009  0.627283
3104.56006  0.581732
3105.27002  0.573903
3105.98999  0.595161
3106.69995  0.635074
3107.41992  0.673720
3108.13989  0.703695
3108.85010  0.734758
3109.57007  0.753811
3110.28003  0.672671
3111.00000  0.751300
3111.71997  0.770814
3112.42993  0.697267
3113.14990  0.625740
3113.87012  0.722604
3114.58008  0.697928
3115.30005  0.691986
3116.02002  0.762452
3116.73999  0.671459
3117.44995  0.685202
3118.16992  0.743284
3118.88989  0.672326
3119.61011  0.593372
3120.33008  0.600143
3121.04004  0.624008
3121.76001  0.620083
3122.47998  0.660216
3123.19995  0.668808
3123.91992  0.616434
3124.63989  0.590511
3125.36011  0.600486
3126.08008  0.646246
3126.80005  0.636304
3127.52002  0.629661
3128.23999  0.650083
3128.95996  0.592344
3129.67993  0.612232
3130.39990  0.642323
3131.12012  0.618735
3131.84009  0.615888
3132.56006  0.635136
3133.28003  0.704447
3134.01001  0.689778
3134.72998  0.635599
3135.44995  0.677754
3136.16992  0.699395
3136.88989  0.648977
3137.62012  0.688898
3138.34009  0.714355
3139.06006  0.762773
3139.78003  0.734061
3140.51001  0.728027
3141.22998  0.670011
3141.94995  0.684422
3142.67993  0.683827
3143.39990  0.699664
3144.12988  0.615071
3144.85010  0.606310
3145.57007  0.660301
3146.30005  0.636135
3147.02002  0.624531
3147.75000  0.620045
3148.46997  0.597199
3149.19995  0.637773
3149.91992  0.692119
3150.64990  0.727171
3151.37012  0.718353
3152.10010  0.702032
3152.83008  0.747508
3153.55005  0.655591
3154.28003  0.707135
3155.00000  0.632914
3155.72998  0.607745
3156.45996  0.631576
3157.17993  0.616116
3157.90991  0.582185
3158.63989  0.604223
3159.37012  0.596278
3160.09009  0.509241
3160.82007  0.609461
3161.55005  0.600717
3162.28003  0.579507
3163.01001  0.564908
3163.72998  0.581139
3164.45996  0.668352
3165.18994  0.656329
3165.91992  0.629008
3166.64990  0.601982
3167.37988  0.641079
3168.11011  0.698393
3168.84009  0.684526
3169.57007  0.744218
3170.30005  0.777644
3171.03003  0.752911
3171.76001  0.794946
3172.48999  0.775297
3173.21997  0.783687
3173.94995  0.851073
3174.67993  0.807571
3175.40991  0.770178
3176.13989  0.768569
3176.87012  0.827379
3177.60010  0.734905
3178.34009  0.770877
3179.07007  0.733320
3179.80005  0.670269
3180.53003  0.687123
3181.27002  0.702360
3182.00000  0.663114
3182.72998  0.681570
3183.45996  0.631103
3184.19995  0.632291
3184.92993  0.652321
3185.65991  0.598400
3186.39990  0.629483
3187.12988  0.705333
3187.86011  0.700157
3188.60010  0.682649
3189.33008  0.681569
3190.07007  0.700165
3190.80005  0.691186
3191.54004  0.700475
3192.27002  0.640779
3193.01001  0.656761
3193.73999  0.639722
3194.47998  0.689766
3195.20996  0.715327
3195.94995  0.706227
3196.68994  0.686771
3197.41992  0.779871
3198.15991  0.750483
3198.88989  0.708326
3199.62988  0.803522
3200.37012  0.802055
3201.10010  0.728601
3201.84009  0.751674
3202.58008  0.782527
3203.32007  0.780398
3204.05005  0.784574
3204.79004  0.769792
3205.53003  0.794355
3206.27002  0.801403
3207.01001  0.801909
3207.75000  0.800941
3208.47998  0.805154
3209.21997  0.718267
3209.95996  0.682857
3210.69995  0.695011
3211.43994  0.718201
3212.17993  0.670938
3212.91992  0.682645
3213.65991  0.645172
3214.39990  0.690329
3215.13989  0.688658
3215.87988  0.691872
3216.62012  0.724138
3217.36011  0.713235
3218.10010  0.753639
3218.84009  0.758227
3219.58008  0.724968
3220.33008  0.733456
3221.07007  0.711015
3221.81006  0.741386
3222.55005  0.676161
3223.29004  0.698799
3224.04004  0.721143
3224.78003  0.675474
3225.52002  0.657853
3226.26001  0.628924
3227.01001  0.641870
3227.75000  0.594804
3228.48999  0.562146
3229.23999  0.679704
3229.97998  0.628150
